# omegabh2 omegach2 theta tau ns nrun logA r asz
6.652200E-07 -3.527500E-06 1.378700E-06 1.801600E-06 2.411400E-05 9.494500E-06 -1.703800E-06 3.386100E-05 5.133300E-05
-3.527500E-06 6.359400E-05 -2.353800E-06 -8.469000E-06 -2.004100E-04 -1.096100E-04 1.768500E-04 -2.534600E-04 -3.782200E-04
1.378700E-06 -2.353800E-06 8.019500E-06 7.736200E-06 3.477500E-05 -8.244700E-07 2.561800E-05 9.452400E-05 8.219600E-05
1.801600E-06 -8.469000E-06 7.736200E-06 2.658200E-04 -5.533500E-06 -1.023700E-04 5.211500E-04 2.214100E-04 2.184700E-04
2.411400E-05 -2.004100E-04 3.477500E-05 -5.533500E-06 1.269400E-03 7.589000E-04 -4.092400E-04 6.004800E-04 -5.995400E-04
9.494500E-06 -1.096100E-04 -8.244700E-07 -1.023700E-04 7.589000E-04 7.090100E-04 -4.790600E-04 -9.868800E-04 -3.651600E-04
-1.703800E-06 1.768500E-04 2.561800E-05 5.211500E-04 -4.092400E-04 -4.790600E-04 1.742000E-03 -6.097600E-05 -2.981300E-03
3.386100E-05 -2.534600E-04 9.452400E-05 2.214100E-04 6.004800E-04 -9.868800E-04 -6.097600E-05 1.259500E-02 3.807400E-03
5.133300E-05 -3.782200E-04 8.219600E-05 2.184700E-04 -5.995400E-04 -3.651600E-04 -2.981300E-03 3.807400E-03 3.319700E-01
