# omegabh2 omegach2 theta tau Alens ns logA asz
3.715600E-07 -3.288700E-07 1.063500E-06 2.804800E-06 1.889900E-04 7.069600E-06 7.786900E-06 5.668100E-05
-3.288700E-07 3.119300E-05 8.700800E-07 -1.846000E-05 -4.239600E-04 -2.333000E-05 8.069800E-05 -3.551300E-04
1.063500E-06 8.700800E-07 7.686900E-06 5.854500E-06 4.749900E-04 2.143600E-05 2.887500E-05 1.020500E-04
2.804800E-06 -1.846000E-05 5.854500E-06 2.260000E-04 5.805700E-04 8.806300E-05 4.178500E-04 1.357500E-04
1.889900E-04 -4.239600E-04 4.749900E-04 5.805700E-04 7.836000E-01 3.068900E-03 8.991100E-04 -1.457300E-02
7.069600E-06 -2.333000E-05 2.143600E-05 8.806300E-05 3.068900E-03 2.033300E-04 1.953800E-04 -2.809300E-04
7.786900E-06 8.069800E-05 2.887500E-05 4.178500E-04 8.991100E-04 1.953800E-04 1.305200E-03 -2.897100E-03
5.668100E-05 -3.551300E-04 1.020500E-04 1.357500E-04 -1.457300E-02 -2.809300E-04 -2.897100E-03 3.319900E-01
