# omegabh2 omegach2 theta tau nnu ns logA asz
3.047200E-07 -3.087800E-07 8.820800E-07 1.023100E-06 4.969700E-06 5.629900E-06 3.131600E-06 7.145300E-05
-3.087800E-07 4.664200E-04 -7.851500E-05 -1.985200E-05 2.594800E-02 2.969600E-04 9.175600E-04 4.973100E-05
8.820800E-07 -7.851500E-05 2.229200E-05 -2.299200E-06 -4.850200E-03 -4.494100E-05 -1.506000E-04 4.926500E-05
1.023100E-06 -1.985200E-05 -2.299200E-06 1.847700E-04 8.493500E-04 6.462300E-05 2.942700E-04 3.750300E-04
4.969700E-06 2.594800E-02 -4.850200E-03 8.493500E-04 1.592400E+00 2.023400E-02 5.180500E-02 3.415900E-02
5.629900E-06 2.969600E-04 -4.494100E-05 6.462300E-05 2.023400E-02 4.356100E-04 7.529300E-04 4.238100E-04
3.131600E-06 9.175600E-04 -1.506000E-04 2.942700E-04 5.180500E-02 7.529300E-04 2.605600E-03 -1.361100E-03
7.145300E-05 4.973100E-05 4.926500E-05 3.750300E-04 3.415900E-02 4.238100E-04 -1.361100E-03 3.283900E-01
