# omegabh2 omegach2 theta tau mnu ns logA asz
3.811300E-07 -5.934500E-07 9.702200E-07 2.976500E-06 -8.800300E-05 8.321800E-06 8.120200E-06 3.463900E-05
-5.934500E-07 3.266400E-05 1.127200E-06 -2.104800E-05 3.949100E-04 -3.086100E-05 7.459300E-05 -3.601700E-04
9.702200E-07 1.127200E-06 7.320900E-06 5.805700E-06 -6.653600E-05 2.099800E-05 3.016100E-05 1.775400E-05
2.976500E-06 -2.104800E-05 5.805700E-06 2.245900E-04 -6.640900E-04 9.433500E-05 4.119100E-04 1.239400E-04
-8.800300E-05 3.949100E-04 -6.653600E-05 -6.640900E-04 1.082600E-01 -2.645100E-03 -1.435300E-03 6.995900E-03
8.321800E-06 -3.086100E-05 2.099800E-05 9.433500E-05 -2.645100E-03 2.533700E-04 2.139900E-04 -7.537100E-04
8.120200E-06 7.459300E-05 3.016100E-05 4.119100E-04 -1.435300E-03 2.139900E-04 1.280500E-03 -3.198300E-03
3.463900E-05 -3.601700E-04 1.775400E-05 1.239400E-04 6.995900E-03 -7.537100E-04 -3.198300E-03 3.357900E-01
