# 2dFGRS final data set: Cole et al. astro-ph/0501174
# k / hMpc^-1, klo, khi, 2dFGRS P(k) / h^-3Mpc^3, 2dFGRS sig / h^-3Mpc^3, covmat P(k) / h^-3Mpc^3,
0.0221168   0.0221168  0.0221168    41707.4   8278.14  56545.8
0.0261381   0.0261381  0.0261381    35455.9   6796.09  50351.4
0.0301593   0.0301593  0.0301593    30056.7   5541.58  44301.7
0.0341805   0.0341805  0.0341805    27285     4573.74  39028 
0.0382018   0.0382018  0.0382018    24382.4   3868.88  34725.8
0.042223    0.042223   0.042223     20925.1   3299.47  31368 
0.0462442   0.0462442  0.0462442    22258.8   2917.19  28831.4
0.0502655   0.0502655  0.0502655    22548.1   2547.02  26946.2
0.0542867   0.0542867  0.0542867    19250.6   2223.59  25513.1
0.058308    0.058308   0.058308     18341.8   2000.08   24320.7
0.0623292   0.0623292  0.0623292    17345.6   1803.63  23173.4
0.0663504   0.0663504  0.0663504    16451.1   1609.15  21924.8
0.0703717   0.0703717  0.0703717    15185.8   1444.7   20503.3
0.0743929   0.0743929  0.0743929    14757     1312.91  18919.6
0.0784141   0.0784141  0.0784141    13493.6   1199.68  17250.8
0.0824354   0.0824354  0.0824354    12801.6   1088.36  15608 
0.0864566   0.0864566  0.0864566    11667.1   983.898  14100.3
0.0904779   0.0904779  0.0904779    10519.2   878.597  12808 
0.0944991   0.0944991  0.0944991    10092.9   806.479  11769.9
0.0985203   0.0985203  0.0985203    9047.74   758.656  10983.3
0.102542    0.102542   0.102542     8344.95   720.583  10412.8
0.106563    0.106563   0.106563     8212.02   686.879  10001.6
0.110584    0.110584   0.110584     8169.45   647.823  9682.92
0.114605    0.114605   0.114605     8159.86   607.515  9392.02
0.118626    0.118626   0.118626     7875.62   576.358  9076.73
0.122648    0.122648   0.122648     7311.92   547.186  8705.3
0.126669    0.126669   0.126669     7013.12   510.5    8270.08
0.13069     0.13069    0.13069      6864.6    485.08   7784.65
0.134712    0.134712   0.134712     6214.29   456.865  7276.97
0.138733    0.138733   0.138733     5736.34   434.629  6780.55
0.142754    0.142754   0.142754     5469.52   411.773  6325.09
0.146775    0.146775   0.146775     5222.81   388.769  5931.21
0.150796    0.150796   0.150796     5030.2    369.8    5607.87
0.154818    0.154818   0.154818     4954      353.809  5352.72
0.168892    0.168892   0.168892     4624.78   309.728  4793.75
0.184977    0.184977   0.184977     3938.12   269.241  4152.45